;;; CIE 15.2-1986 Table 1.1
;;; Part 2: CIE Standard Illuminant D65 relative spectral power distribution
;;; 300 nm - 830 nm at 5 nm intervals
0.03410
1.66430
3.29450
11.76520
20.23600
28.64470
37.05350
38.50110
39.94880
42.43020
44.91170
45.77500
46.63830
49.36370
52.08910
51.03230
49.97550
52.31180
54.64820
68.70150
82.75490
87.12040
91.48600
92.45890
93.43180
90.05700
86.68230
95.77360
104.86500
110.93600
117.00800
117.41000
117.81200
116.33600
114.86100
115.39200
115.92300
112.36700
108.81100
109.08200
109.35400
108.57800
107.80200
106.29600
104.79000
106.23900
107.68900
106.04700
104.40500
104.22500
104.04600
102.02300
100.00000
98.16710
96.33420
96.06110
95.78800
92.23680
88.68560
89.34590
90.00620
89.80260
89.59910
88.64890
87.69870
85.49360
83.28860
83.49390
83.69920
81.86300
80.02680
80.12070
80.21460
81.24620
82.27780
80.28100
78.28420
74.00270
69.72130
70.66520
71.60910
72.97900
74.34900
67.97650
61.60400
65.74480
69.88560
72.48630
75.08700
69.33980
63.59270
55.00540
46.41820
56.61180
66.80540
65.09410
63.38280
63.84340
64.30400
61.87790
59.45190
55.70540
51.95900
54.69980
57.44060
58.87650
60.31250
