;;; CIE 15.2-1986 Table 1.1
;;; Part 1: CIE Standard Illuminant A relative spectral power distribution
;;; 300 nm - 830 nm at 5 nm intervals
0.930483
1.128210
1.357690
1.622190
1.925080
2.269800
2.659810
3.098610
3.589680
4.136480
4.742380
5.410700
6.144620
6.947200
7.821350
8.769800
9.795100
10.899600
12.085300
13.354300
14.708000
16.148000
17.675300
19.290700
20.995000
22.788300
24.670900
26.642500
28.702700
30.850800
33.085900
35.406800
37.812100
40.300200
42.869300
45.517400
48.242300
51.041800
53.913200
56.853900
59.861100
62.932000
66.063500
69.252500
72.495900
75.790300
79.132600
82.519300
85.947000
89.412400
92.912000
96.442300
100.000000
103.582000
107.184000
110.803000
114.436000
118.080000
121.731000
125.386000
129.043000
132.697000
136.346000
139.988000
143.618000
147.235000
150.836000
154.418000
157.979000
161.516000
165.028000
168.510000
171.963000
175.383000
178.769000
182.118000
185.429000
188.701000
191.931000
195.118000
198.261000
201.359000
204.409000
207.411000
210.365000
213.268000
216.120000
218.920000
221.667000
224.361000
227.000000
229.585000
232.115000
234.589000
237.008000
239.370000
241.675000
243.924000
246.116000
248.251000
250.329000
252.350000
254.314000
256.221000
258.071000
259.865000
261.602000
